Wavelength (nm)	Dilution Corrected Absorbance
230	0.3216955
233	0.2914725
236	0.2718369
239	0.2568708
242	0.2466867
245	0.2381582
248	0.2310404
251	0.2244687
254	0.2187471
257	0.2130624
260	0.2074529
263	0.2016509
266	0.195626
269	0.1897045
272	0.1835252
275	0.177396
278	0.1713058
281	0.1648045
284	0.1583743
287	0.1519271
290	0.1462086
293	0.1406995
296	0.1360421
299	0.1305901
302	0.1253019
305	0.1201722
308	0.1154029
311	0.1108473
314	0.1062955
317	0.1020299
320	0.09787337
323	0.09375439
326	0.08983236
329	0.08623716
332	0.08276051
335	0.07951428
338	0.07639239
341	0.07331927
344	0.07042086
347	0.06762723
350	0.06498275
353	0.06231282
356	0.05973389
359	0.05733491
362	0.05488781
365	0.05254383
368	0.05022233
371	0.0479007
374	0.04556913
377	0.0433885
380	0.04131784
383	0.03939685
386	0.03745132
389	0.03555834
392	0.03385504
395	0.03220878
398	0.03081153
401	0.02944555
404	0.02815078
407	0.02689198
410	0.02567573
413	0.02448838
416	0.02337949
419	0.02239249
422	0.02140439
425	0.02051004
428	0.0196851
431	0.01882585
434	0.01802586
437	0.01728947
440	0.01655694
443	0.01591672
446	0.01527806
449	0.01472456
452	0.01420218
455	0.01371342
458	0.01326902
461	0.01287517
464	0.0124575
467	0.01211642
470	0.01175893
473	0.01138604
476	0.01100937
479	0.01063829
482	0.01029763
485	0.009990432
488	0.009622208
491	0.009307588
494	0.009007817
497	0.008682109
500	0.008371781
503	0.008084721
506	0.007344972
509	0.007547982
512	0.007293035
515	0.007054318
518	0.006808547
521	0.006573355
524	0.006359144
527	0.006146999
530	0.005944009
533	0.005756753
536	0.005566948
539	0.005394523
542	0.005211221
545	0.005056
548	0.00474409
551	0.004753041
554	0.004639209
557	0.004498892
560	0.004382187
563	0.004268684
566	0.004151641
569	0.004041874
572	0.003942007
575	0.003831017
578	0.003735784
581	0.00363326
584	0.003541805
587	0.003440797
590	0.003365188
593	0.003289081
596	0.003214884
599	0.003116524
602	0.003036443
605	0.002963961
608	0.002911085
611	0.002855743
614	0.002791624
617	0.002734431
620	0.002652743
623	0.002593122
626	0.00254028
629	0.002482011
632	0.002441939
635	0.002377403
638	0.00231145
641	0.002272538
644	0.002230807
647	0.002201965
650	0.002158267
653	0.002119607
656	0.002071829
659	0.00204268
662	0.002016083
665	0.001966842
668	0.001931338
671	0.001875014
674	0.001838539
677	0.001850569
680	0.001812636
683	0.001790502
686	0.001763778
689	0.001715421
692	0.001679793
695	0.0017062
698	0.001773259
701	0.001680278
704	0.001651614
707	0.00163047
710	0.001593109
713	0.001551247
716	0.001476786
719	0.001400733
722	0.001350904
725	0.001304439
728	0.001264178
731	0.001189404
734	0.001093556
737	0.0009963047
740	0.0009615563
743	0.0009749742
746	0.00101916
749	0.001053329
752	0.001089179
755	0.001094667
758	0.001136981
761	0.001184157
764	0.00117041
767	0.001178164
770	0.001185643
773	0.001175411
776	0.001224538
779	0.001237353
782	0.001249929
785	0.001271532
788	0.001304765
791	0.001364217
794	0.001337244
797	0.001302486
800	0.001257494
